L(w) dB
2.93149e-05
2.986e-05
3.04151e-05
3.09806e-05
3.15565e-05
3.21432e-05
3.27408e-05
3.33495e-05
3.39695e-05
3.4601e-05
3.52443e-05
3.58996e-05
3.6567e-05
3.72468e-05
3.79393e-05
3.86447e-05
3.93631e-05
4.00949e-05
4.08404e-05
4.15996e-05
4.2373e-05
4.31608e-05
4.39632e-05
4.47806e-05
4.56131e-05
4.64611e-05
4.73249e-05
4.82047e-05
4.91009e-05
5.00138e-05
5.09436e-05
5.18907e-05
5.28555e-05
5.38381e-05
5.48391e-05
5.58586e-05
5.68971e-05
5.79549e-05
5.90324e-05
6.01299e-05
6.12478e-05
6.23864e-05
6.35463e-05
6.47277e-05
6.59311e-05
6.71569e-05
6.84054e-05
6.96772e-05
7.09726e-05
7.22921e-05
7.36361e-05
7.50051e-05
7.63995e-05
7.78199e-05
7.92667e-05
8.07404e-05
8.22415e-05
8.37705e-05
8.53279e-05
8.69143e-05
8.85301e-05
9.0176e-05
9.18525e-05
9.35602e-05
9.52997e-05
9.70714e-05
9.88761e-05
0.000100714
0.000102587
0.000104494
0.000106437
0.000108416
0.000110431
0.000112484
0.000114576
0.000116706
0.000118875
0.000121086
0.000123337
0.00012563
0.000127965
0.000130344
0.000132768
0.000135236
0.00013775
0.000140311
0.00014292
0.000145577
0.000148284
0.00015104
0.000153849
0.000156709
0.000159622
0.00016259
0.000165613
0.000168692
0.000171828
0.000175023
0.000178277
0.000181591
0.000184967
0.000188406
0.000191909
0.000195477
0.000199111
0.000202813
0.000206583
0.000210424
0.000214336
0.000218321
0.00022238
0.000226514
0.000230726
0.000235015
0.000239385
0.000243835
0.000248369
0.000252986
0.00025769
0.00026248
0.00026736
0.000272331
0.000277394
0.000282552
0.000287805
0.000293156
0.000298606
0.000304157
0.000309812
0.000315572
0.000321439
0.000327416
0.000333503
0.000339703
0.000346019
0.000352452
0.000359005
0.000365679
0.000372478
0.000379403
0.000386457
0.000393642
0.000400961
0.000408415
0.000416009
0.000423743
0.000431621
0.000439646
0.00044782
0.000456146
0.000464626
0.000473265
0.000482064
0.000491026
0.000500156
0.000509455
0.000518926
0.000528574
0.000538402
0.000548412
0.000558608
0.000568994
0.000579573
0.000590348
0.000601324
0.000612504
0.000623892
0.000635491
0.000647307
0.000659342
0.0006716
0.000684087
0.000696806
0.000709761
0.000722957
0.000736399
0.00075009
0.000764037
0.000778242
0.000792711
0.00080745
0.000822463
0.000837754
0.00085333
0.000869196
0.000885357
0.000901818
0.000918585
0.000935664
0.000953061
0.000970781
0.00098883
0.00100722
0.00102594
0.00104502
0.00106445
0.00108424
0.0011044
0.00112493
0.00114585
0.00116715
0.00118885
0.00121096
0.00123347
0.00125641
0.00127977
0.00130356
0.0013278
0.00135249
0.00137764
0.00140325
0.00142934
0.00145592
0.00148299
0.00151057
0.00153865
0.00156726
0.0015964
0.00162609
0.00165632
0.00168712
0.00171849
0.00175044
0.00178299
0.00181614
0.00184991
0.00188431
0.00191935
0.00195504
0.00199139
0.00202842
0.00206613
0.00210455
0.00214369
0.00218355
0.00222415
0.00226551
0.00230763
0.00235054
0.00239425
0.00243877
0.00248412
0.00253031
0.00257737
0.00262529
0.00267411
0.00272384
0.00277449
0.00282608
0.00287863
0.00293216
0.00298669
0.00304223
0.0030988
0.00315643
0.00321512
0.00327491
0.00333581
0.00339785
0.00346104
0.0035254
0.00359096
0.00365774
0.00372576
0.00379505
0.00386563
0.00393752
0.00401074
0.00408533
0.00416131
0.0042387
0.00431753
0.00439783
0.00447962
0.00456293
0.00464779
0.00473423
0.00482228
0.00491197
0.00500332
0.00509638
0.00519117
0.00528772
0.00538607
0.00548624
0.00558828
0.00569223
0.0057981
0.00590594
0.0060158
0.00612769
0.00624167
0.00635777
0.00647603
0.00659649
0.00671919
0.00684418
0.00697149
0.00710117
0.00723327
0.00736782
0.00750488
0.00764449
0.0077867
0.00793155
0.00807911
0.00822941
0.0083825
0.00853845
0.0086973
0.00885911
0.00902393
0.00919181
0.00936283
0.00953703
0.00971447
0.00989521
0.0100793
0.0102669
0.0104579
0.0106525
0.0108507
0.0110526
0.0112583
0.0114678
0.0116812
0.0118985
0.01212
0.0123455
0.0125752
0.0128093
0.0130477
0.0132905
0.0135378
0.0137898
0.0140464
0.0143079
0.0145742
0.0148455
0.0151218
0.0154033
0.01569
0.015982
0.0162796
0.0165826
0.0168913
0.0172058
0.0175261
0.0178524
0.0181848
0.0185233
0.0188682
0.0192195
0.0195774
0.0199419
0.0203133
0.0206915
0.0210769
0.0214694
0.0218692
0.0222765
0.0226914
0.023114
0.0235445
0.0239831
0.0244298
0.0248849
0.0253484
0.0258206
0.0263017
0.0267917
0.0272908
0.0277993
0.0283173
0.0288449
0.0293825
0.02993
0.0304878
0.031056
0.0316348
0.0322244
0.032825
0.0334369
0.0340602
0.0346951
0.0353419
0.0360009
0.0366721
0.0373559
0.0380524
0.038762
0.0394849
0.0402213
0.0409715
0.0417357
0.0425142
0.0433073
0.0441152
0.0449383
0.0457767
0.0466309
0.047501
0.0483875
0.0492906
0.0502105
0.0511478
0.0521026
0.0530752
0.0540662
0.0550757
0.0561041
0.0571518
0.0582192
0.0593066
0.0604144
0.061543
0.0626928
0.0638642
0.0650576
0.0662734
0.067512
0.0687739
0.0700595
0.0713693
0.0727037
0.0740632
0.0754483
0.0768594
0.0782971
0.0797618
0.0812542
0.0827746
0.0843236
0.0859019
0.0875098
0.0891481
0.0908173
0.0925179
0.0942507
0.0960161
0.0978148
0.0996475
0.101515
0.103417
0.105356
0.107331
0.109344
0.111394
0.113483
0.115612
0.117782
0.119992
0.122244
0.124539
0.126877
0.12926
0.131688
0.134162
0.136682
0.139251
0.141869
0.144536
0.147254
0.150024
0.152846
0.155723
0.158653
0.16164
0.164684
0.167786
0.170947
0.174168
0.177451
0.180797
0.184206
0.187681
0.191222
0.194832
0.19851
0.202259
0.206079
0.209973
0.213942
0.217987
0.22211
0.226312
0.230595
0.234961
0.239411
0.243946
0.248569
0.253282
0.258085
0.262982
0.267973
0.273061
0.278247
0.283534
0.288924
0.294419
0.30002
0.30573
0.311552
0.317487
0.323538
0.329707
0.335997
0.34241
0.348948
0.355615
0.362412
0.369343
0.37641
0.383616
0.390964
0.398457
0.406098
0.413891
0.421837
0.429941
0.438205
0.446633
0.45523
0.463997
0.472939
0.482059
0.491362
0.50085
0.510529
0.520402
0.530474
0.540747
0.551228
0.561921
0.572829
0.583958
0.595313
0.606898
0.618719
0.63078
0.643088
0.655646
0.668462
0.681541
0.694888
0.70851
0.722413
0.736602
0.751086
0.765869
0.78096
0.796365
0.812091
0.828145
0.844536
0.861271
0.878357
0.895804
0.913619
0.931812
0.95039
0.969364
0.988743
1.00854
1.02875
1.0494
1.0705
1.09205
1.11407
1.13656
1.15955
1.18304
1.20704
1.23156
1.25663
1.28225
1.30844
1.33521
1.36258
1.39056
1.41917
1.44842
1.47833
1.50892
1.5402
1.57219
1.60492
1.6384
1.67265
1.7077
1.74355
1.78025
1.8178
1.85623
1.89557
1.93583
1.97706
2.01927
2.06249
2.10674
2.15207
2.1985
2.24605
2.29477
2.34468
2.39583
2.44824
2.50195
2.55701
2.61344
2.6713
2.73062
2.79145
2.85383
2.91781
2.98343
3.05075
3.11981
3.19067
3.26338
3.338
3.41459
3.49319
3.57388
3.6567
3.74173
3.82903
3.91866
4.01069
4.10517
4.20219
4.3018
4.40406
4.50905
4.61682
4.72743
4.84093
4.95739
5.07683
5.1993
5.32482
5.45341
5.58506
5.71975
5.85744
5.99806
6.14151
6.28764
6.43627
6.58716
6.74001
6.89443
7.04996
7.20605
7.362
7.51701
7.67014
7.82027
7.96613
8.10625
8.23899
8.36251
8.47481
8.57375
8.65705
8.72242
8.76756
8.79029
8.78863
8.7609
8.70581
8.62254
8.51079
8.37077
8.20326
8.00947
7.79104
7.5499
7.28823
7.00828
6.71236
6.40275
6.0816
5.75093
5.41259
5.06824
4.71937
4.36728
4.01309
3.65776
3.30212
2.94685
2.59252
2.23962
1.88851
1.53951
1.19287
0.848763
0.507344
0.168712
-0.167065
-0.499943
-0.829905
-1.15695
-1.4811
-1.80237
-2.12081
-2.43646
-2.74937
-3.05961
-3.36724
-3.67232
-3.97492
-4.2751
-4.57294
-4.8685
-5.16186
-5.45308
-5.74223
-6.02937
-6.31457
-6.5979
-6.87942
-7.15918
-7.43725
-7.71369
-7.98855
-8.26189
-8.53376
-8.80422
-9.0733
-9.34107
-9.60756
-9.87283
-10.1369
-10.3999
-10.6617
-10.9225
-11.1823
-11.4411
-11.6989
-11.9558
-12.2119
-12.4671
-12.7215
-12.9751
-13.228
-13.4801
-13.7316
-13.9823
-14.2325
-14.482
-14.7309
-14.9792
-15.227
-15.4743
-15.721
-15.9673
-16.2131
-16.4584
-16.7033
-16.9478
-17.1919
-17.4356
-17.679
-17.922
-18.1647
-18.407
-18.6491
-18.8908
-19.1323
-19.3735
-19.6144
-19.8551
-20.0956
-20.3358
-20.5759
-20.8157
-21.0553
-21.2948
-21.5341
-21.7732
-22.0121
-22.2509
-22.4896
-22.7281
-22.9665
-23.2048
-23.443
-23.681
-23.919
-24.1569
-24.3946
-24.6323
-24.8699
-25.1075
-25.3449
-25.5824
-25.8197
-26.057
-26.2942
-26.5314
-26.7686
-27.0057
-27.2427
-27.4798
-27.7168
-27.9538
-28.1907
-28.4277
-28.6646
-28.9015
-29.1384
-29.3753
-29.6122
-29.849
-30.0859
-30.3228
-30.5596
-30.7965
-31.0334
-31.2703
-31.5072
-31.744
-31.9809
-32.2179
-32.4548
-32.6917
-32.9287
-33.1657
-33.4026
-33.6396
-33.8767
-34.1137
-34.3508
-34.5879
-34.825
-35.0621
-35.2992
-35.5364
-35.7736
-36.0108
-36.2481
-36.4853
-36.7226
-36.96
-37.1973
-37.4347
-37.6721
-37.9095
-38.147
-38.3845
-38.622
-38.8595
-39.0971
-39.3347
-39.5723
-39.8099
-40.0476
-40.2853
-40.523
-40.7608
-40.9986
-41.2364
-41.4743
-41.7121
-41.95
-42.1879
-42.4259
-42.6639
-42.9019
-43.1399
-43.378
-43.6161
-43.8542
-44.0923
-44.3305
-44.5687
-44.8069
-45.0451
-45.2834
-45.5217
-45.76
-45.9983
-46.2367
-46.4751
-46.7135
-46.9519
-47.1904
-47.4289
-47.6674
-47.9059
-48.1444
-48.383
-48.6216
-48.8602
-49.0989
-49.3375
-49.5762
-49.8149
-50.0536
-50.2923
-50.5311
-50.7699
-51.0087
-51.2475
-51.4863
-51.7252
-51.964
-52.2029
-52.4418
-52.6808
-52.9197
-53.1587
-53.3976
-53.6366
-53.8756
-54.1147
-54.3537
-54.5928
-54.8318
-55.0709
-55.31
-55.5491
-55.7883
-56.0274
-56.2666
-56.5058
-56.7449
-56.9842
-57.2234
-57.4626
-57.7018
-57.9411
-58.1804
-58.4196
-58.6589
-58.8982
-59.1375
-59.3769
-59.6162
-59.8556
-60.0949
-60.3343
-60.5737
-60.8131
-61.0525
-61.2919
-61.5313
-61.7707
-62.0102
-62.2496
-62.4891
-62.7286
-62.9681
-63.2075
-63.447
-63.6866
-63.9261
-64.1656
-64.4051
-64.6447
-64.8842
-65.1238
-65.3633
-65.6029
-65.8425
-66.0821
-66.3217
-66.5613
-66.8009
-67.0405
-67.2801
-67.5197
-67.7594
-67.999
-68.2387
-68.4783
-68.718
-68.9577
-69.1973
-69.437
-69.6767
-69.9164
-70.1561
-70.3958
-70.6355
-70.8752
-71.1149
-71.3546
-71.5943
-71.8341
-72.0738
-72.3136
-72.5533
-72.793
-73.0328
-73.2726
-73.5123
-73.7521
-73.9919
